GISP2 Laser Light Scattering 1 meter and 1/2 meter averages

REFERENCES: 

Ram, M., and G. Koenig. 1997. Continuous dust concentration profile of pre
Holocene ice from the Greenland Ice Sheet Project 2 ice core: Dust
stadials, interstadials, and the Eemian. Journal of Geophysical Research
102:26641-26648.

Ram, M., M. Illing, P. Weber, G. Koenig, and M. Kaplan. 1995. Polar ice
stratigraphy from laser-light scattering: Scattering from ice. Geophysical
Research Letters 22:3525-3527.

Ram, M., and M. Illing. 1994. Polar ice stratigraphy from laser-light
scattering: scattering from meltwater. Journal of Glaciology 40:504-508.

DATA DESCRIPTION: 

These data are a compilation of the detailed solid ice laser light
scattering (LLS) files.  They are essentially 1 meter averages (every 500
data points of the LLS files averaged) above 2100 meters and 1/2 meter
averages below 2100 meters. There are several gaps in the data throughout
the record.  See the file lightinfo.txt for more information. 

DATA:

Depth	LLS	Age
Top (m)	relative intensity	(yr BP 1950)

1700.00	257.1	12437
1701.10	30.2	12477
1702.10	43.3	12516
1703.10	256.2	12554
1704.10	277.4	12594
1705.10	316.3	12632
1706.10	354.3	12671
1707.20	366.3	12714
1708.20	280.4	12749
1709.20	235.9	12786
1710.20	188.8	12823
1711.20	109.1	12856
1712.20	108.1	12888
1713.20	96.3	12915
1715.20	166.2	12959
1716.30	125.6	12982
1717.30	75.9	13003
1718.30	61.2	13024
1719.30	71.8	13048
1720.30	164.9	13070
1721.30	142.2	13091
1800.00	110.1	14750
1801.00	106.6	14786
1802.00	97.3	14822
1803.10	122.9	14863
1804.10	139.4	14898
1805.10	149.9	14933
1806.10	120.2	14966
1807.10	155.4	15001
1808.10	171.7	15039
1809.10	182.6	15073
1810.10	200.5	15107
1811.10	165.3	15142
1812.20	98.4	15183
1813.20	127.3	15220
1814.20	170.7	15262
1815.20	168.4	15303
1816.20	138.2	15346
1817.20	182.9	15390
1818.20	183.7	15430
1819.30	145.4	15473
1820.30	175.2	15510
1821.30	201.6	15553
1822.30	205.6	15593
1823.30	189.7	15634
1824.30	169.6	15674
1825.30	205.3	15715
1826.30	195.5	15758
1827.30	219.8	15800
1828.40	202.5	15843
1829.40	203.1	15882
1830.40	227.0	15926
1831.40	256.4	15969
1832.40	208.9	16011
1833.40	245.2	16051
1834.40	254.2	16095
1835.40	259.6	16137
1836.40	207.4	16176
1837.40	192.5	16213
1838.50	251.6	16256
1839.50	289.1	16293
1840.50	208.0	16331
1841.50	186.5	16371
1842.50	164.1	16409
1843.50	163.1	16450
1844.50	182.0	16494
1845.50	197.8	16534
1846.50	265.8	16572
1847.50	220.1	16608
1848.60	193.8	16648
1849.60	240.3	16687
1850.60	334.0	16722
1851.60	282.5	16759
1852.60	311.0	16794
1853.60	376.8	16831
1854.60	308.5	16867
1855.60	326.8	16906
1856.60	295.0	16945
1857.60	300.0	16986
1858.70	346.8	17033
1859.70	329.7	17076
1860.70	310.4	17118
1861.70	350.1	17160
1862.70	289.0	17197
1863.70	275.8	17234
1864.70	261.6	17280
1865.70	264.2	17324
1866.70	215.3	17365
1867.80	195.9	17412
1868.70	227.5	17452
1869.60	147.8	17492
1870.60	152.5	17537
1871.60	195.0	17582
1872.60	228.3	17628
1873.60	238.6	17674
1874.60	274.0	17720
1875.70	281.5	17770
1876.70	233.6	17817
1877.70	183.4	17867
1878.70	175.8	17917
1879.70	159.3	17966
1880.70	216.7	18017
1881.70	218.8	18065
1882.80	227.5	18117
1883.80	210.3	18168
1884.80	179.5	18218
1885.80	192.6	18269
1886.80	204.1	18313
1887.80	156.6	18360
1888.80	262.3	18415
1889.80	266.7	18466
1890.80	284.7	18515
1891.90	295.2	18567
1892.90	271.8	18620
1893.90	230.8	18672
1894.90	244.9	18724
1895.90	213.1	18776
1896.90	179.6	18833
1897.90	171.2	18884
1899.00	201.5	18942
1900.00	177.7	18995
1901.00	246.6	19039
1902.00	209.0	19088
1903.00	218.5	19129
1904.00	206.8	19172
1905.00	233.9	19215
1906.10	291.3	19259
1907.10	328.4	19303
1908.10	276.8	19348
1909.10	274.4	19388
1910.10	356.3	19433
1911.10	253.7	19478
1912.10	301.0	19526
1913.10	315.5	19570
1914.10	365.2	19625
1915.10	411.8	19675
1916.20	358.6	19733
1917.20	338.1	19783
1918.20	319.8	19829
1919.20	378.8	19876
1920.20	363.0	19927
1921.20	349.6	19978
1922.20	304.4	20023
1923.20	249.4	20070
1924.20	274.3	20115
1925.20	220.3	20159
1926.30	183.6	20209
1927.30	255.7	20258
1928.30	244.5	20307
1929.30	236.8	20353
1930.30	190.9	20403
1931.40	165.4	20459
1932.40	202.3	20506
1933.40	225.6	20554
1934.40	158.0	20603
1935.40	196.3	20653
1936.40	257.3	20704
1937.40	256.0	20758
1938.40	226.5	20811
1939.40	221.0	20859
1940.40	298.1	20910
1941.50	302.6	20971
1942.50	271.8	21024
1943.50	320.4	21074
1944.50	331.1	21126
1945.50	305.8	21177
1946.50	264.9	21228
1947.50	291.2	21281
1948.70	282.2	21343
1949.70	290.9	21395
1950.70	273.6	21448
1951.70	286.8	21502
1952.70	366.0	21557
1953.70	290.7	21615
1954.70	250.2	21672
1955.80	254.7	21742
1956.80	296.5	21805
1957.80	298.3	21866
1958.80	286.8	21929
1959.80	257.0	21987
1960.80	266.4	22042
1961.80	270.3	22091
1962.80	258.1	22139
1963.90	270.9	22208
1964.90	242.3	22256
1965.90	289.2	22316
1966.90	241.0	22377
1967.90	241.6	22437
1968.90	217.1	22494
1969.90	212.3	22551
1970.90	290.3	22607
1972.00	249.6	22669
1973.00	240.0	22725
1974.00	233.5	22777
1975.00	215.3	22833
1976.00	146.3	22888
1977.00	105.8	22936
1978.00	173.8	22990
1979.00	205.3	23044
1980.10	178.3	23100
1981.10	299.2	23153
1982.10	215.5	23214
1983.10	134.3	23263
1984.10	166.5	23308
1985.10	159.7	23359
1986.10	197.9	23412
1987.10	294.9	23473
1988.10	388.5	23534
1988.80	161.0	23579
1989.60	240.2	23630
1990.40	59.7	23680
1991.10	222.8	23721
1991.90	127.1	23770
1992.70	47.6	23818
1993.40	402.3	23860
1994.20	664.2	23906
1994.90	689.5	23943
1995.70	646.9	23984
1996.40	653.6	24024
1997.20	644.3	24071
1998.00	624.8	24115
1998.70	427.9	24154
1999.50	311.3	24200
2000.20	291.4	24243
2001.00	354.5	24299
2001.80	381.6	24350
2002.50	352.5	24394
2003.30	278.9	24445
2004.00	223.6	24493
2004.80	306.2	24541
2005.50	266.3	24584
2006.30	329.4	24633
2007.10	399.6	24683
2007.80	451.3	24729
2008.60	410.4	24779
2009.30	407.9	24824
2010.10	413.7	24879
2010.90	401.2	24931
2011.60	265.6	24975
2012.40	330.9	25024
2013.10	439.9	25068
2013.90	429.6	25120
2014.60	539.2	25165
2015.40	628.8	25217
2016.10	681.1	25263
2016.90	764.9	25316
2017.70	767.5	25369
2018.40	860.2	25416
2019.20	824.3	25471
2019.90	932.4	25518
2020.70	973.6	25572
2021.40	1137.1	25620
2022.20	1483.8	25675
2023.00	836.1	25728
2023.70	843.3	25774
2024.50	930.1	25828
2025.20	458.4	25877
2026.00	348.7	25935
2026.70	343.3	25984
2027.50	325.3	26039
2028.20	265.0	26085
2029.00	241.7	26137
2029.80	234.7	26191
2030.50	264.4	26238
2031.30	201.7	26291
2032.00	292.7	26336
2032.80	314.2	26393
2033.60	306.5	26448
2034.30	288.4	26496
2035.10	297.8	26551
2035.80	231.2	26596
2036.60	242.1	26647
2037.30	317.8	26689
2038.10	348.7	26736
2038.80	343.2	26780
2039.60	254.1	26830
2040.40	288.5	26880
2041.20	328.8	26930
2041.90	226.6	26974
2042.70	221.7	27027
2043.40	205.1	27071
2044.20	206.1	27119
2044.90	250.3	27163
2045.70	235.8	27218
2046.50	260.2	27274
2047.20	259.5	27323
2048.00	211.0	27381
2048.80	198.9	27437
2049.60	93.9	27493
2050.30	77.3	27538
2051.10	64.8	27582
2051.80	69.8	27622
2052.60	82.4	27662
2053.40	72.4	27704
2054.10	71.8	27741
2054.90	61.7	27785
2055.60	68.6	27822
2056.40	165.2	27869
2057.10	304.5	27914
2057.90	359.1	27979
2058.60	339.3	28034
2059.40	369.0	28097
2060.20	332.8	28158
2060.90	325.6	28210
2061.70	316.1	28266
2062.40	372.0	28314
2063.20	421.1	28367
2063.90	363.3	28411
2064.70	417.1	28460
2065.40	335.2	28503
2066.20	258.0	28550
2067.00	198.8	28590
2067.70	188.0	28631
2068.50	85.3	28677
2069.20	88.6	28713
2070.00	80.1	28751
2070.80	69.4	28789
2071.50	61.2	28821
2072.30	62.6	28857
2073.00	55.8	28891
2073.80	72.5	28931
2074.50	100.7	28966
2075.30	85.6	29003
2076.10	166.4	29038
2076.90	254.6	29082
2077.60	280.0	29124
2078.40	310.6	29175
2079.10	450.4	29221
2079.90	402.6	29271
2080.70	391.5	29319
2081.40	451.2	29362
2082.20	507.7	29413
2082.90	478.5	29461
2083.70	470.1	29524
2084.40	393.5	29578
2085.20	592.9	29640
2085.90	456.4	29698
2086.70	446.2	29757
2087.50	611.1	29810
2088.20	357.6	29852
2089.00	448.2	29900
2089.70	498.0	29947
2090.50	458.8	30000
2091.30	407.1	30053
2092.00	545.9	30102
2092.80	541.0	30155
2093.60	605.2	30207
2094.30	420.0	30253
2095.10	385.4	30305
2095.80	346.4	30350
2096.60	290.1	30403
2097.30	212.7	30450
2098.10	154.3	30504
2098.90	144.1	30552
2099.60	171.4	30595
2100.40	209.2	30645
2101.10	303.4	30689
2101.90	293.1	30739
2102.60	296.6	30786
2103.40	314.6	30839
2104.10	327.8	30883
2104.90	303.1	30935
2105.70	236.8	30988
2106.40	263.6	31035
2107.20	285.1	31088
2107.90	575.4	31134
2108.70	321.2	31184
2109.40	295.9	31229
2110.20	286.9	31280
2110.90	294.4	31325
2111.80	245.6	31382
2112.50	205.6	31427
2113.30	175.6	31478
2114.00	187.3	31521
2114.80	243.6	31569
2115.50	218.2	31612
2116.30	268.6	31663
2117.10	119.1	31714
2117.80	113.3	31756
2118.60	123.1	31804
2119.30	96.4	31846
2120.10	74.6	31894
2120.80	97.7	31932
2121.60	73.5	31979
2122.30	91.6	32020
2123.10	80.7	32067
2123.90	81.2	32117
2124.60	72.6	32159
2125.40	82.0	32208
2126.10	79.5	32251
2126.90	101.7	32302
2127.60	181.4	32346
2128.40	201.3	32398
2129.20	222.8	32452
2129.90	265.6	32499
2130.70	309.8	32552
2131.40	299.6	32598
2132.20	281.2	32652
2133.00	287.6	32707
2133.70	364.6	32756
2134.50	271.0	32811
2135.20	238.3	32859
2136.00	219.2	32913
2136.70	239.0	32961
2137.50	177.1	33013
2138.30	178.1	33065
2139.00	63.0	33113
2139.80	83.5	33168
2140.50	57.2	33217
2141.30	69.2	33271
2142.10	58.7	33326
2142.80	84.8	33373
2143.60	109.3	33428
2144.30	124.9	33475
2145.10	78.8	33527
2145.80	996.0	33574
2146.60	101.5	33627
2147.30	155.2	33673
2148.10	198.0	33728
2148.90	228.4	33784
2149.60	246.9	33830
2200.00	70.1	36591
2200.80	76.8	36640
2201.50	72.2	36681
2202.30	80.4	36727
2203.00	64.9	36769
2203.80	116.0	36811
2204.60	92.5	36853
2205.30	84.3	36890
2206.10	68.0	36932
2206.80	71.1	36970
2207.60	80.5	37013
2208.30	112.7	37051
2209.10	94.2	37094
2209.80	92.7	37132
2210.60	81.8	37172
2211.30	63.6	37209
2212.10	58.3	37253
2212.90	94.3	37298
2213.60	65.3	37337
2214.40	42.4	37381
2215.10	46.1	37420
2215.90	77.8	37464
2216.60	50.3	37499
2217.40	45.5	37541
2218.20	45.1	37585
2218.90	46.3	37624
2219.70	57.7	37668
2220.40	59.4	37707
2221.20	51.4	37754
2221.90	45.6	37798
2222.70	57.2	37848
2223.40	55.0	37892
2224.20	57.8	37943
2224.90	51.3	37987
2225.70	60.6	38041
2226.50	58.5	38097
2227.20	48.3	38146
2228.00	80.2	38201
2228.70	82.8	38249
2229.50	82.7	38295
2230.20	92.7	38331
2231.00	96.2	38375
2231.70	183.7	38415
2232.50	250.3	38466
2233.30	257.2	38519
2234.00	265.3	38565
2234.80	279.4	38624
2235.50	238.7	38675
2236.30	265.7	38736
2237.00	305.3	38793
2237.80	327.6	38855
2238.50	330.2	38912
2239.30	278.2	38974
2240.10	278.1	39034
2240.80	297.1	39088
2241.60	325.9	39151
2242.30	362.3	39207
2243.10	353.7	39272
2243.80	330.6	39330
2244.60	298.6	39397
2245.30	335.1	39456
2246.10	323.7	39521
2246.90	357.6	39584
2247.60	422.6	39644
2248.40	397.4	39715
2249.10	366.9	39779
2249.90	335.0	39844
2250.60	281.7	39901
2251.30	226.8	39955
2251.80	111.4	39991
2252.30	96.4	40025
2252.80	108.9	40056
2253.30	51.5	40088
2253.80	32.0	40121
2254.30	12.1	40152
2254.80	14.5	40182
2255.30	15.8	40211
2255.80	37.2	40239
2256.30	118.0	40271
2256.80	82.5	40305
2257.30	77.7	40335
2257.80	69.6	40361
2258.30	71.5	40386
2258.90	63.0	40417
2259.40	62.8	40440
2259.90	75.6	40463
2260.40	67.7	40489
2260.90	68.2	40515
2261.40	61.2	40537
2261.90	74.5	40558
2262.40	66.1	40580
2262.90	82.6	40602
2263.40	72.9	40623
2263.90	92.0	40645
2264.50	80.1	40669
2265.00	41.4	40688
2265.50	45.1	40713
2266.00	31.2	40737
2266.50	38.7	40759
2267.00	30.5	40781
2267.50	29.9	40802
2268.00	24.4	40823
2268.50	28.1	40844
2269.00	32.8	40865
2269.50	44.1	40891
2270.00	49.0	40916
2270.60	32.3	40945
2271.10	40.7	40969
2271.60	33.3	40991
2272.10	50.4	41013
2272.60	39.4	41031
2273.10	31.4	41051
2273.60	23.5	41073
2274.10	22.3	41095
2274.60	35.7	41116
2275.10	79.8	41136
2275.60	49.4	41156
2276.10	50.2	41177
2276.70	95.0	41208
2277.20	134.7	41233
2277.70	210.9	41259
2278.20	195.6	41284
2278.70	165.6	41310
2279.20	196.5	41336
2279.70	198.2	41364
2280.20	221.8	41391
2280.70	322.1	41417
2281.20	219.7	41446
2281.70	243.8	41478
2282.30	194.5	41511
2282.80	222.3	41535
2283.30	238.6	41560
2283.80	266.4	41586
2284.30	182.5	41611
2284.80	133.5	41635
2285.30	100.4	41660
2285.80	72.3	41685
2286.30	51.4	41710
2286.80	56.8	41735
2287.30	107.4	41762
2287.80	54.8	41791
2288.30	71.4	41819
2288.80	104.2	41846
2289.70	60.6	41893
2290.20	68.0	41919
2290.70	88.9	41947
2291.20	83.7	41974
2291.70	45.2	41999
2292.20	67.2	42024
2292.70	22.9	42048
2293.20	24.4	42073
2293.70	35.6	42099
2294.20	55.7	42124
2294.80	24.8	42149
2295.30	21.2	42173
2295.80	64.0	42198
2296.30	84.9	42223
2296.80	71.2	42248
2297.30	23.6	42273
2297.80	31.1	42299
2298.30	130.2	42322
2298.80	39.9	42343
2299.40	54.4	42368
2299.90	30.0	42389
2300.40	37.2	42412
2300.90	88.5	42436
2301.40	23.4	42459
2301.90	36.0	42482
2302.40	51.6	42505
2303.00	55.5	42534
2303.50	37.9	42558
2304.00	169.9	42581
2304.50	148.6	42615
2305.00	146.4	42648
2305.50	131.4	42681
2306.00	187.6	42713
2306.50	164.0	42745
2307.00	142.2	42776
2307.50	165.5	42808
2308.00	146.7	42839
2308.50	171.9	42872
2309.10	202.4	42911
2309.60	175.6	42942
2310.10	359.6	42973
2310.60	175.8	43005
2311.10	207.8	43036
2311.60	155.7	43063
2312.10	136.5	43091
2312.60	113.1	43119
2313.10	79.1	43148
2313.60	63.6	43179
2314.10	41.1	43208
2314.60	32.8	43235
2315.20	24.8	43267
2315.70	30.0	43291
2316.20	28.8	43315
2316.70	21.6	43341
2317.20	56.8	43367
2317.70	73.5	43396
2318.20	57.7	43426
2318.70	60.0	43458
2319.20	32.8	43488
2319.70	40.1	43516
2320.20	29.2	43544
2320.70	43.4	43575
2321.20	42.9	43604
2321.70	35.9	43632
2322.30	30.9	43667
2322.80	37.4	43698
2323.30	43.2	43728
2323.80	31.5	43758
2324.30	43.4	43787
2324.80	47.1	43814
2325.30	33.9	43844
2325.80	35.5	43875
2326.30	29.3	43904
2326.80	38.4	43933
2327.30	86.3	43962
2327.80	61.2	43991
2328.30	86.2	44019
2328.90	74.6	44050
2329.40	106.9	44077
2329.90	152.5	44105
2330.40	109.0	44132
2330.90	107.2	44159
2331.40	92.2	44182
2331.90	102.3	44205
2332.40	56.0	44228
2332.90	42.4	44251
2333.40	128.6	44273
2333.90	79.5	44295
2334.40	56.3	44317
2334.90	36.7	44340
2335.40	33.5	44364
2335.90	29.2	44388
2336.40	21.7	44411
2336.90	24.2	44434
2337.50	19.6	44466
2338.00	18.5	44492
2338.50	18.0	44517
2339.00	22.5	44542
2339.50	34.7	44563
2340.00	21.1	44583
2340.50	16.3	44606
2341.00	13.3	44629
2341.50	13.4	44653
2342.10	18.5	44680
2342.60	15.9	44701
2343.10	14.5	44721
2343.60	14.6	44743
2344.10	22.8	44765
2344.60	29.5	44787
2345.10	54.2	44810
2345.60	37.4	44832
2346.10	40.8	44855
2346.60	13.7	44877
2347.10	38.3	44900
2347.60	37.9	44923
2348.10	31.8	44946
2348.70	29.6	44973
2349.20	19.7	44995
2349.70	16.7	45016
2350.20	16.0	45037
2350.70	17.1	45058
2351.20	141.8	45078
2351.70	20.0	45096
2352.20	19.6	45116
2352.70	17.8	45138
2353.20	15.8	45160
2353.70	17.0	45183
2354.20	16.7	45205
2354.70	14.1	45226
2355.20	14.1	45248
2355.70	29.7	45270
2356.30	48.0	45295
2356.80	56.2	45314
2357.30	37.0	45333
2357.80	43.4	45352
2358.30	124.9	45373
2358.80	67.6	45394
2359.30	159.6	45420
2359.80	139.0	45450
2360.30	146.8	45479
2360.80	200.6	45508
2361.30	185.1	45540
2361.80	240.4	45572
2362.30	198.5	45606
2362.80	156.5	45641
2363.30	136.0	45675
2363.80	130.3	45708
2364.40	154.2	45747
2364.90	198.6	45780
2365.40	145.1	45816
2365.90	190.4	45852
2366.40	190.6	45891
2366.90	160.4	45931
2367.40	152.6	45973
2367.90	148.6	46016
2368.40	235.5	46060
2368.90	258.6	46106
2369.40	214.8	46147
2369.90	206.7	46186
2370.40	264.3	46226
2371.00	299.8	46274
2371.50	229.6	46319
2372.00	178.2	46363
2372.50	125.9	46404
2373.00	161.4	46444
2373.50	129.4	46488
2374.00	134.9	46531
2374.50	161.5	46566
2375.00	58.4	46600
2375.50	79.0	46632
2376.00	74.8	46664
2376.50	81.2	46693
2377.00	60.5	46721
2377.50	62.6	46755
2378.00	31.6	46788
2378.60	24.8	46828
2379.10	36.5	46860
2379.60	41.5	46888
2380.10	32.6	46917
2380.60	49.2	46944
2381.10	28.2	46972
2381.60	48.8	47002
2382.10	158.5	47032
2382.60	56.6	47062
2383.20	104.8	47098
2383.70	101.3	47128
2384.20	78.4	47155
2384.70	77.0	47178
2385.20	109.7	47203
2385.70	137.3	47229
2386.20	259.6	47257
2386.70	151.0	47288
2387.20	151.3	47324
2387.70	146.4	47366
2388.20	156.9	47406
2388.70	98.2	47444
2389.20	89.7	47479
2389.70	71.9	47510
2390.30	73.2	47547
2390.80	72.1	47576
2391.30	80.1	47606
2391.80	122.4	47637
2392.30	179.7	47666
2392.80	112.6	47693
2393.30	89.4	47723
2393.80	99.5	47754
2394.30	112.8	47786
2394.80	75.2	47817
2395.30	52.3	47849
2395.80	48.8	47880
2396.30	46.3	47911
2396.80	37.2	47942
2397.30	44.5	47974
2397.80	56.2	48008
2398.40	47.4	48046
2398.90	45.5	48077
2399.40	41.3	48110
2399.80	45.0	48137
2400.40	54.3	48176
2400.90	40.5	48207
2401.40	33.8	48239
2401.90	34.8	48272
2402.40	48.2	48303
2402.90	27.5	48333
2403.40	30.9	48363
2403.90	96.1	48394
2404.40	48.5	48424
2405.00	42.0	48461
2405.50	40.0	48497
2406.00	36.7	48532
2406.50	31.9	48566
2407.00	64.1	48600
2407.50	52.1	48636
2408.00	47.2	48671
2408.50	36.3	48701
2409.00	26.0	48731
2409.50	49.7	48763
2410.00	36.4	48795
2410.50	27.3	48829
2411.10	40.0	48869
2411.60	47.2	48901
2412.10	56.9	48932
2412.60	67.1	48963
2413.10	60.9	48995
2413.60	47.1	49029
2414.10	77.0	49064
2414.60	67.7	49100
2415.10	68.1	49135
2415.60	87.8	49166
2416.10	46.8	49197
2416.60	43.9	49229
2417.10	53.0	49262
2417.60	50.0	49294
2418.10	51.9	49326
2418.70	81.2	49362
2419.20	129.5	49390
2419.70	66.1	49416
2420.20	59.2	49442
2420.70	40.9	49468
2421.20	77.4	49495
2421.70	32.2	49524
2422.20	32.7	49552
2422.70	37.1	49580
2423.20	44.5	49608
2423.70	34.0	49636
2424.20	24.4	49663
2424.70	22.2	49691
2425.30	27.0	49726
2425.80	22.7	49756
2426.30	29.5	49787
2426.80	34.8	49818
2427.30	44.2	49846
2427.80	27.3	49873
2428.30	24.6	49902
2428.80	23.8	49931
2429.30	23.2	49961
2429.80	24.5	49990
2430.30	21.6	50021
2430.80	31.0	50052
2431.30	25.6	50137
2431.80	18.2	50258
2432.30	21.5	50331
2432.90	33.1	50380
2433.40	27.5	50421
2433.90	21.3	50461
2434.40	23.8	50502
2434.90	34.1	50543
2435.40	42.4	50583
2435.90	43.9	50624
2436.40	38.6	50665
2436.90	31.4	50705
2437.40	36.5	50746
2437.90	28.3	50787
2438.40	34.9	50827
2438.90	89.3	50868
2439.40	30.7	50909
2439.90	29.4	50949
2440.40	33.0	50990
2441.00	66.5	51039
2441.70	64.1	51096
2442.50	60.9	51161
2443.00	55.8	51201
2443.50	32.2	51242
2444.00	37.8	51283
2444.50	25.9	51323
2445.00	31.5	51364
2445.50	24.7	51405
2446.10	38.3	51453
2446.60	31.4	51494
2447.10	38.2	51535
2447.60	31.8	51575
2448.10	28.7	51616
2448.60	43.4	51657
2449.10	52.2	51697
2449.60	37.5	51738
2450.10	47.7	51779
2450.60	85.2	51819
2451.10	63.1	51860
2451.60	52.9	51900
2452.20	65.9	51953
2452.70	34.2	52004
2453.20	55.1	52054
2453.70	64.7	52104
2454.20	47.5	52155
2454.70	97.4	52205
2455.20	156.1	52256
2455.70	175.0	52306
2456.20	168.0	52356
2456.70	183.0	52407
2457.20	173.6	52457
2457.70	180.7	52508
2458.30	233.6	52568
2458.80	178.5	52618
2459.30	210.1	52669
2459.80	137.0	52719
2460.30	66.6	52770
2460.80	73.4	52820
2461.30	138.5	52870
2461.80	204.9	52921
2462.30	212.3	52983
2462.80	231.8	53052
2463.30	203.7	53122
2463.80	194.8	53191
2464.40	65.1	53275
2464.90	40.7	53344
2465.40	42.8	53414
2465.90	44.7	53483
2466.40	45.4	53553
2466.90	48.5	53622
2467.40	41.9	53692
2467.90	56.3	53761
2468.40	60.5	53831
2468.90	137.5	53900
2469.40	155.8	53970
2469.90	178.0	54039
2470.40	168.2	54109
2470.90	200.3	54178
2471.40	239.1	54248
2471.90	222.2	54317
2472.50	235.2	54394
2473.00	269.6	54458
2473.50	153.1	54521
2474.00	84.0	54584
2474.50	76.5	54648
2475.00	66.3	54711
2475.50	61.4	54774
2476.00	49.0	54837
2476.50	52.0	54901
2477.00	71.8	54964
2477.50	104.9	55027
2478.00	54.4	55091
2478.50	45.2	55154
2479.00	50.1	55217
2479.50	55.4	55281
2480.10	54.3	55356
2480.60	43.5	55420
2481.10	44.7	55483
2481.60	53.3	55546
2482.10	86.8	55608
2482.60	94.1	55661
2483.10	90.2	55714
2483.70	83.7	55779
2484.20	71.4	55832
2484.70	93.3	55885
2485.20	104.9	55939
2485.70	97.8	55992
2486.10	102.0	56035
2486.70	74.4	56099
2487.20	58.1	56152
2487.70	57.2	56206
2488.20	89.5	56259
2488.70	112.2	56313
2489.20	137.4	56366
2489.70	108.5	56419
2490.20	42.4	56473
2490.70	60.0	56526
2491.20	42.4	56580
2491.70	74.9	56633
2492.20	140.4	56687
2492.70	83.5	56742
2493.20	41.6	56796
2493.80	49.2	56862
2494.30	94.3	56916
2494.80	162.6	56971
2495.30	143.6	57026
2495.80	181.0	57080
2496.30	149.3	57135
2496.80	59.6	57190
2497.30	53.3	57244
2497.80	47.7	57299
2498.30	36.0	57354
2498.80	50.0	57408
2499.30	58.9	57463
2499.80	72.7	57518
2500.30	49.6	57572
2500.80	55.1	57627
2501.30	56.5	57681
2501.80	64.5	57736
2502.30	53.2	57794
2502.90	72.1	57866
2503.40	169.5	57927
2503.90	193.2	57987
2504.40	131.8	58047
2504.90	49.3	58107
2505.40	48.2	58167
2505.90	78.4	58228
2506.40	52.6	58288
2506.90	183.3	58348
2507.40	243.0	58408
2507.90	249.2	58468
2508.40	253.4	58529
2508.90	281.0	58589
2509.40	293.5	58649
2509.90	265.3	58709
2510.40	270.7	58769
2511.00	199.3	58842
2511.50	248.6	58902
2512.00	290.7	58962
2512.70	327.7	59052
2513.30	377.7	59129
2513.80	368.9	59193
2514.30	433.0	59258
2514.80	377.5	59322
2515.30	441.0	59386
2515.90	379.0	59463
2516.40	482.6	59527
2516.90	597.3	59592
2517.40	344.4	59656
2517.90	315.4	59720
2518.40	354.1	59784
2518.90	386.8	59849
2519.40	307.0	59913
2519.90	378.8	59977
2520.40	397.3	60041
2520.90	443.5	60106
2521.40	405.4	60170
2521.90	390.8	60234
2522.40	570.4	60302
2523.00	486.9	60386
2523.40	394.0	60441
2523.90	434.1	60511
2524.50	496.6	60594
2525.00	425.6	60663
2525.50	478.3	60732
2526.00	489.2	60802
2526.50	487.2	60871
2527.00	516.3	60941
2527.50	449.7	61010
2528.00	509.5	61079
2528.50	477.9	61149
2529.00	372.7	61218
2529.50	328.6	61287
2530.00	307.7	61357
2530.50	290.2	61426
2531.00	301.4	61495
2531.50	301.8	61565
2532.00	276.2	61634
2532.50	217.1	61693
2533.00	139.9	61752
2550.00	387.3	63827
2550.50	369.3	63890
2551.00	244.4	63953
2551.50	233.8	64017
2552.00	259.0	64080
2552.50	295.2	64163
2553.00	246.6	64246
2553.50	304.9	64328
2554.00	389.6	64411
2554.50	336.3	64494
2555.00	294.5	64577
2555.50	268.8	64660
2556.00	267.2	64742
2556.50	232.3	64825
2557.00	257.1	64908
2557.50	275.7	64991
2558.00	189.4	65074
2558.50	186.6	65156
2559.00	155.4	65239
2559.50	232.1	65322
2560.00	259.5	65405
2560.50	224.3	65488
2561.00	185.9	65570
2561.50	39.5	65653
2562.00	46.0	65736
2562.50	68.1	65808
2563.00	107.0	65879
2563.50	247.1	65951
2564.00	310.5	66022
2564.50	360.9	66094
2565.00	358.9	66165
2565.50	324.2	66237
2566.00	169.7	66308
2566.50	160.9	66380
2567.00	124.7	66452
2567.50	110.4	66523
2568.00	88.1	66595
2568.50	113.3	66666
2569.00	80.0	66738
2569.50	104.1	66809
2570.00	64.9	66881
2570.50	33.5	66952
2571.00	28.4	67024
2571.50	32.4	67095
2572.00	43.4	67167
2572.50	25.3	67231
2573.00	26.3	67294
2573.50	26.4	67358
2574.00	53.1	67421
2574.50	25.1	67485
2575.00	26.0	67548
2575.50	22.8	67612
2576.00	19.6	67675
2576.50	34.2	67739
2577.00	21.1	67802
2577.50	34.2	67866
2578.00	29.3	67929
2578.50	26.2	67993
2579.00	32.6	68056
2579.50	22.9	68120
2580.00	25.2	68183
2580.50	19.1	68247
2581.00	29.0	68310
2581.50	21.1	68374
2582.00	24.8	68437
2582.50	21.2	68515
2583.00	27.8	68592
2583.50	29.9	68670
2584.00	49.3	68747
2584.50	153.7	68825
2585.00	525.0	68902
2585.50	637.3	68980
2586.00	483.3	69057
2586.50	572.7	69135
2587.00	665.3	69213
2587.50	481.5	69290
2588.00	527.8	69368
2588.50	572.6	69445
2589.10	565.4	69538
2589.60	590.7	69616
2590.10	624.8	69693
2590.60	523.2	69771
2591.10	378.8	69848
2591.60	185.1	69926
2592.00	236.8	69988
2592.50	160.3	70067
2593.10	223.3	70162
2593.50	183.5	70225
2594.00	160.9	70304
2594.50	119.2	70383
2595.00	177.7	70462
2595.50	120.1	70541
2596.00	126.7	70620
2596.60	95.5	70715
2597.10	107.3	70794
2597.60	89.1	70873
2598.10	67.7	70952
2598.60	63.8	71031
2599.10	93.2	71111
2599.60	92.5	71190
2600.10	129.3	71269
2600.60	100.7	71348
2601.10	67.0	71427
2601.60	82.7	71506
2602.10	107.9	71584
2602.60	98.1	71660
2603.10	86.5	71736
2603.60	89.3	71811
2604.10	81.7	71887
2604.60	79.2	71963
2605.10	70.2	72039
2605.60	65.7	72114
2606.10	64.4	72190
2606.60	82.1	72266
2607.10	64.4	72342
2607.60	85.6	72417
2608.10	70.3	72492
2608.60	94.5	72560
2609.10	60.5	72628
2609.60	70.4	72696
2610.10	108.1	72764
2610.60	86.4	72832
2611.10	129.4	72901
2611.60	99.8	72969
2612.10	206.3	73037
2612.60	364.9	73105
2613.10	395.9	73173
2613.60	403.7	73241
2614.10	399.8	73312
2614.60	395.5	73394
2615.10	377.1	73476
2615.60	451.7	73558
2616.10	454.6	73640
2616.60	420.9	73722
2617.10	415.2	73803
2617.60	393.8	73885
2618.10	264.8	73967
2618.60	156.9	74049
2619.10	145.9	74131
2619.60	124.4	74213
2620.10	108.4	74294
2620.60	69.5	74374
2621.10	117.9	74454
2621.60	219.1	74534
2622.10	237.5	74614
2622.60	205.7	74694
2623.10	280.1	74775
2623.60	158.6	74855
2624.10	171.5	74935
2624.60	197.2	75015
2625.10	157.5	75095
2625.60	152.1	75175
2626.10	135.3	75255
2626.60	111.5	75337
2627.10	141.6	75418
2627.60	132.3	75499
2628.10	141.5	75580
2628.60	119.9	75662
2629.10	176.1	75743
2629.60	104.9	75824
2630.10	155.6	75905
2630.60	155.7	75987
2631.10	131.0	76068
2631.60	96.7	76149
2632.10	101.6	76229
2632.60	94.3	76306
2633.10	127.4	76383
2633.60	104.1	76460
2634.10	113.1	76536
2634.60	104.9	76613
2635.10	77.4	76690
2635.60	86.6	76767
2636.10	76.8	76843
2636.60	104.0	76920
2637.10	159.4	76997
2637.60	139.6	77074
2638.10	218.0	77150
2638.60	104.6	77226
2639.10	143.8	77302
2639.60	91.7	77378
2640.10	75.4	77454
2640.60	92.8	77529
2641.10	117.9	77605
2641.60	84.7	77681
2642.10	65.2	77757
2642.60	64.4	77833
2643.10	51.6	77909
2643.60	65.0	77984
2644.10	64.0	78061
2644.60	59.9	78143
2645.10	66.2	78225
2645.60	56.8	78307
2646.10	79.3	78389
2646.60	84.9	78471
2647.10	50.5	78553
2647.60	50.1	78635
2648.10	77.7	78717
2648.60	71.9	78799
2649.10	118.1	78881
2649.60	75.5	78963
2650.00	79.0	79028
2650.50	70.2	79110
2651.00	74.9	79192
2651.50	59.4	79274
2652.00	61.8	79356
2652.50	63.4	79449
2653.00	65.3	79541
2653.50	48.4	79634
2654.00	84.1	79727
2654.50	88.3	79819
2655.00	89.8	79912
2655.50	87.4	80005
2656.00	77.4	80097
2656.50	77.8	80190
2657.00	78.0	80283
2657.50	68.9	80375
2658.00	59.2	80468
2658.50	58.1	80563
2659.00	66.1	80657
2659.50	47.7	80752
2660.00	50.1	80846
2660.50	90.4	80941
2661.00	42.9	81036
2661.50	48.2	81130
2662.00	149.3	81225
2662.50	104.7	81319
2663.00	107.8	81414
2663.50	58.9	81508
2664.00	73.3	81603
2664.50	60.6	81700
2665.00	59.4	81797
2665.50	52.8	81894
2666.00	69.9	81991
2666.50	61.9	82088
2667.00	50.4	82185
2667.50	35.9	82282
2668.00	46.1	82379
2668.50	47.2	82476
2669.00	49.2	82573
2669.50	44.6	82670
2670.00	60.7	82767
2670.50	51.0	82866
2671.10	46.2	82984
2671.60	61.2	83083
2672.10	91.2	83181
2672.60	54.2	83280
2673.10	68.9	83379
2673.60	89.3	83477
2674.10	92.6	83576
2674.60	73.5	83675
2675.10	52.4	83773
2675.60	99.8	83872
2676.10	115.3	83972
2676.60	180.2	84076
2677.10	197.7	84180
2677.60	125.5	84285
2678.10	66.8	84389
2678.60	152.3	84493
2679.10	290.5	84597
2679.60	328.7	84702
2680.10	309.9	84806
2680.60	299.3	84910
2681.10	326.1	85014
2681.60	258.2	85119
2682.10	248.5	85224
2682.60	312.2	85333
2683.10	326.4	85441
2683.60	188.4	85550
2700.30	58.5	89312
2700.80	57.2	89426
2701.30	56.8	89540
2701.80	35.7	89654
2702.30	48.8	89768
2702.80	74.6	89882
2703.30	78.9	89996
2703.80	93.6	90110
2704.40	130.1	90247
2704.90	147.4	90361
2705.30	110.5	90454
2705.80	139.5	90572
2706.30	119.1	90689
2706.80	115.3	90806
2707.30	134.4	90923
2707.80	115.2	91040
2708.30	127.9	91158
2708.80	132.6	91275
2709.30	111.9	91392
2709.80	132.4	91509
2710.30	103.9	91626
2710.80	106.1	91744
2711.40	115.6	91884
2711.90	124.8	92002
2712.40	126.2	92124
2712.90	104.8	92248
2713.30	106.0	92347
2713.80	97.2	92471
2714.30	191.7	92594
2714.80	152.4	92718
2715.30	123.4	92842
2715.80	138.6	92966
2716.30	141.9	93089
2716.80	209.4	93213
2717.30	167.6	93337
2717.80	146.9	93461
2718.30	154.5	93587
2718.80	132.7	93715
2719.30	153.1	93842
2719.80	121.3	93970
2720.30	159.8	94098
2720.80	121.1	94226
2721.30	172.8	94354
2721.80	131.9	94482
2722.30	165.3	94609
2722.80	164.9	94737
2723.30	176.0	94865
2723.80	153.0	94993
2724.30	256.1	95120
2724.80	140.3	95248
2725.30	152.4	95375
2725.80	154.3	95502
2726.30	132.6	95629
2726.80	174.7	95757
2727.30	173.0	95884
2727.80	144.8	96011
2728.30	140.4	96138
2728.80	87.8	96266
2729.30	105.7	96393
2729.80	95.7	96520
2730.30	132.7	96647
2730.80	120.0	96775
2731.30	132.1	96902
2731.80	91.5	97029
2732.30	119.1	97154
2732.80	98.8	97279
2733.30	114.7	97403
2733.80	176.4	97527
2734.30	181.2	97651
2734.80	138.8	97775
2735.30	191.6	97899
2735.80	206.4	98023
2736.30	119.3	98144
2736.80	121.7	98262
2737.30	121.3	98380
2737.80	146.7	98499
2738.30	129.4	98617
2738.80	108.8	98735
2739.30	102.2	98853
2739.80	172.6	98972
2740.30	105.7	99084
2740.80	116.7	99192
2741.30	104.1	99300
2741.80	178.4	99408
2742.30	217.9	99516
2742.80	147.7	99624
2743.30	137.8	99732
2750.00	254.1	101030
2750.50	247.4	101127
2751.00	436.1	101224
2751.50	452.9	101320
2752.00	389.8	101417
2752.50	506.7	101513
2753.00	311.5	101608
2753.50	265.5	101704
2754.00	196.5	101800
2754.50	145.4	101895
2755.00	291.8	101991
2755.50	472.1	102086
2756.00	512.2	102182
2756.50	508.1	102278
2757.00	423.9	102373
2757.50	195.6	102469
2758.00	135.4	102565
2758.50	254.1	102660
2759.00	615.6	102756
2759.50	523.7	102851
2760.00	509.7	102947
2760.50	295.4	103044
2761.00	130.5	103141
2761.50	378.6	103237
2762.00	231.4	103334
2762.50	130.9	103431
2763.00	325.5	103528
2763.50	303.5	103624
2764.00	193.2	103721
2764.50	110.9	103818
2765.00	174.8	103915
2765.50	161.9	104011
2766.00	147.3	104108
2766.50	146.0	104205
2767.00	169.8	104302
2767.50	101.7	104398
2768.00	105.2	104495
2768.50	70.1	104586
2769.00	55.3	104677
2769.50	75.6	104767
2770.00	90.0	104858
2770.50	114.3	104949
2771.00	89.8	105040
2771.50	87.4	105130
2772.00	82.9	105221
2772.50	79.3	105312
2773.00	90.0	105403
2773.50	145.9	105493
2774.00	130.5	105584
2774.50	241.5	105675
2775.00	198.7	105766
2775.50	151.0	105856
2776.00	110.8	105947
2776.50	128.4	106038
2777.00	134.0	106129
2777.50	218.1	106219
2778.00	138.0	106310
2778.50	196.4	106401
2779.00	99.7	106492
2779.50	128.0	106583
2780.00	180.6	106674
2780.50	215.7	106764
2781.00	191.8	106855
2781.50	188.9	106946
2782.00	168.3	107037
2782.50	176.4	107128
2783.00	103.5	107218
2783.50	132.2	107309
2784.00	197.1	107400
2784.50	155.2	107491
2785.00	273.6	107582
2785.50	226.6	107673
2786.00	184.9	107764
2786.50	241.9	107855
2787.00	222.3	107946
2787.50	201.7	108037
2788.00	210.5	108129
2788.50	187.2	108220
2789.00	207.7	108311
2789.50	230.0	108402
2790.00	138.1	108493
2790.50	118.2	108584
2791.00	135.0	108675
2791.50	128.5	108766
2792.00	110.2	108857
2792.50	70.5	108900
2793.00	127.4	108942
2793.50	115.6	108985
2794.00	89.0	109028
2794.50	103.0	109070
2795.00	168.1	109113
2795.50	164.1	109156
2796.00	115.8	109199
2796.50	152.9	109241
2797.00	163.3	109284
2797.50	279.4	109327
2798.00	138.7	109369
2798.50	119.1	109412
2799.00	122.8	109455
2799.50	233.9	109497
2800.00	263.5	109540
2800.00	303.8	109540
2800.50	477.6	109630
2801.00	100.4	109720
2801.50	107.6	109809
2802.00	108.4	109899
2802.50	464.0	109989
2803.00	707.1	110079
2803.50	627.0	110169
2804.00	380.4	110259
2804.50	197.8	110348
2805.00	102.8	110438
2805.50	114.0	110528
2806.00	584.3	110618
2806.50	679.3	110708
2807.00	710.2	110797
2807.50	749.0	110887
2808.00	613.9	110977
2808.50	646.6	999999
2809.00	718.4	999999
2809.50	736.9	999999
2810.00	673.4	999999
2810.50	808.3	999999
2811.10	675.1	999999
2811.60	672.0	999999
2812.10	287.3	999999
2812.60	334.0	999999
2813.10	320.5	999999
2813.60	390.9	999999
2814.10	404.9	999999
2814.60	427.8	999999
2815.10	397.5	999999
2815.60	97.6	999999
2816.10	40.1	999999
2816.60	47.0	999999
2817.10	58.2	999999
2817.60	45.7	999999
2818.10	36.3	999999
2818.60	54.8	999999
2819.10	40.3	999999
2819.60	44.6	999999
2820.20	62.4	999999
2820.70	56.7	999999
2821.20	54.5	999999
2821.70	44.6	999999
2822.20	44.4	999999
2822.70	45.0	999999
2823.20	70.9	999999
2823.70	72.7	999999
2824.20	115.8	999999
2824.70	95.1	999999
2825.20	50.9	999999
2825.70	103.8	999999
2826.20	60.2	999999
2826.70	59.7	999999
2827.30	57.9	999999
2827.80	57.8	999999
2828.30	41.5	999999
2828.80	126.8	999999
2829.30	212.1	999999
2829.80	203.3	999999
2830.30	116.8	999999
2830.80	117.2	999999
2831.30	112.6	999999
2831.80	98.9	999999
2832.30	57.2	999999
2832.80	51.9	999999
2833.30	89.5	999999
2833.80	154.1	999999
2834.30	58.9	999999
2834.80	36.6	999999
2835.30	62.1	999999
2835.80	63.1	999999
2836.30	74.6	999999
2836.80	96.1	999999
2837.30	56.4	999999
2837.80	41.1	999999
2838.30	30.5	999999
2838.80	94.7	999999
2839.30	46.0	999999
2839.80	35.3	999999
2840.30	75.4	999999
2840.80	70.3	999999
2841.30	27.4	999999
2841.80	70.4	999999
2842.40	76.0	999999
2842.90	46.6	999999
2850.00	263.4	999999
2850.50	257.4	999999
2851.00	314.4	999999
2851.50	230.6	999999
2852.00	373.5	999999
2852.50	187.2	999999
2853.00	119.3	999999
2853.50	74.4	999999
2854.00	84.4	999999
2854.50	12.9	999999
2855.00	77.0	999999
2855.50	325.2	999999
2856.00	337.7	999999
2856.50	373.0	999999
2857.00	307.1	999999
2857.50	351.8	999999
2858.00	239.5	999999
2858.50	275.9	999999
2859.00	130.2	999999
2859.50	94.7	999999
2860.00	50.8	999999
2860.50	62.6	999999
2861.00	83.4	999999
2861.50	278.6	999999
2862.00	314.0	999999
2862.50	288.9	999999
2863.00	100.4	999999
2863.50	106.5	999999
2864.00	167.2	999999
2864.50	112.1	999999
2865.00	233.3	999999
2865.50	229.8	999999
2866.00	99.5	999999
2866.50	160.1	999999
2867.00	258.0	999999
2867.50	207.0	999999
2868.00	282.0	999999
2868.50	244.5	999999
2869.10	390.0	999999
2869.60	150.2	999999
2870.10	203.4	999999
2870.60	139.2	999999
2871.10	205.8	999999
2871.60	111.7	999999
2872.10	230.4	999999
2872.60	471.4	999999
2873.10	382.1	999999
2873.60	487.2	999999
2874.10	232.5	999999
2874.60	368.5	999999
2875.10	255.3	999999
2875.60	204.9	999999
2876.10	305.4	999999
2876.60	216.6	999999
2877.10	190.5	999999
2877.60	178.9	999999
2878.10	364.2	999999
2878.60	362.0	999999
2879.10	496.9	999999
2879.60	307.5	999999
2880.10	304.8	999999
2880.60	403.4	999999
2881.10	283.8	999999
2881.60	116.4	999999
2882.10	162.9	999999
2882.60	91.2	999999
2883.10	53.7	999999
2883.60	166.5	999999
2884.10	242.0	999999
2884.60	78.0	999999
2885.10	106.9	999999
2885.60	104.9	999999
2886.10	82.1	999999
2886.60	52.9	999999
2887.10	185.7	999999
2887.60	145.2	999999
2888.10	165.0	999999
2888.60	202.9	999999
2889.10	130.1	999999
2889.60	244.5	999999
2890.10	234.0	999999
2890.60	131.0	999999
2891.10	181.8	999999
2891.60	136.9	999999
2892.10	192.4	999999
2892.60	325.7	999999
2893.10	667.7	999999
2893.60	606.9	999999
2894.10	188.4	999999
2894.60	285.7	999999
2895.10	402.8	999999
2895.60	421.5	999999
2896.10	217.5	999999
2896.60	526.0	999999
2897.10	689.9	999999
2897.60	729.2	999999
2898.10	898.4	999999
2898.60	631.8	999999
2899.10	910.6	999999
2899.60	699.5	999999
2900.00	1007.2	999999
2900.50	925.9	999999
2901.00	752.1	999999
2901.50	864.4	999999
2902.00	906.2	999999
2902.50	1081.3	999999
2903.00	1007.6	999999
2903.50	1078.3	999999
2904.00	1039.4	999999
2904.50	1035.0	999999
2905.00	1067.6	999999
2905.50	1017.0	999999
2906.00	1039.3	999999
2906.50	805.1	999999
2907.00	1116.0	999999
2907.50	993.2	999999
2908.00	929.2	999999
2908.50	878.3	999999
2909.00	875.5	999999
2909.50	798.3	999999
2910.00	980.5	999999
2910.50	946.6	999999
2911.00	859.4	999999
2911.50	870.1	999999
2912.00	841.9	999999
2912.50	886.5	999999
2913.00	758.6	999999
2913.50	970.0	999999
2914.00	775.0	999999
2914.50	661.8	999999
2915.00	1036.3	999999
2915.50	852.6	999999
2916.00	827.4	999999
2916.50	1116.2	999999
2917.00	1029.8	999999
2917.50	1038.6	999999
2918.00	1052.6	999999
2918.50	1051.2	999999
2919.00	856.0	999999
2919.50	957.3	999999
2920.00	971.3	999999
2920.50	729.4	999999
2921.00	675.4	999999
2921.50	146.3	999999
2922.00	213.2	999999
2922.50	296.8	999999
2923.10	638.3	999999
2923.60	1013.7	999999
2924.10	935.1	999999
2924.60	1017.4	999999
2925.10	747.9	999999
2925.60	958.5	999999
2926.10	921.2	999999
2926.60	810.6	999999
2927.10	902.1	999999
2927.60	889.8	999999
2928.10	1091.4	999999
2928.60	813.3	999999
2929.10	960.2	999999
2929.60	974.8	999999
2930.10	1031.8	999999
2930.60	1058.6	999999
2931.10	1151.3	999999
2931.60	1154.6	999999
2932.10	1115.1	999999
2932.60	1124.8	999999
2933.10	925.8	999999
2933.60	1099.5	999999
2934.10	1299.8	999999
2934.60	1297.2	999999
2935.10	1133.8	999999
2935.60	1131.2	999999
2936.10	1283.0	999999
2936.60	1238.9	999999
2937.10	1530.8	999999
2937.60	1636.4	999999
2938.10	1461.1	999999
2938.60	1481.4	999999
2939.10	1411.9	999999
2939.60	1681.5	999999
2940.10	1561.1	999999
2940.60	1632.7	999999
2941.10	1584.5	999999
2941.60	1416.9	999999
2942.10	1502.0	999999
2942.60	1325.8	999999
2943.10	1391.3	999999
2943.60	1479.0	999999
2944.10	1473.7	999999
2944.60	1383.5	999999
2945.10	1472.3	999999
2945.60	1148.2	999999
2946.10	1248.1	999999
2946.60	1418.9	999999
2947.10	1481.5	999999
2947.60	1452.0	999999
2948.10	1244.5	999999
2948.60	383.8	999999
2949.10	264.1	999999
2949.60	53.9	999999
2950.00	1136.7	999999
2950.50	1418.1	999999
2951.00	481.2	999999
2951.50	339.8	999999
2952.00	965.6	999999
2952.50	107.6	999999
2953.00	123.6	999999
2953.50	1806.3	999999
2954.00	346.4	999999
2954.50	201.5	999999
2955.00	208.7	999999
2955.50	194.9	999999
2956.00	156.5	999999
2956.50	2662.7	999999
2957.00	2934.0	999999
2957.50	1503.2	999999
2958.00	1231.9	999999
2958.50	369.5	999999
2959.00	141.2	999999
2959.50	213.0	999999
2960.00	143.3	999999
2960.50	255.4	999999
2961.00	91.2	999999
2961.50	85.7	999999
2962.00	43.7	999999
2962.50	50.2	999999
2963.00	60.2	999999
2963.50	1015.9	999999
2964.00	3372.4	999999
2964.50	2937.2	999999
2965.10	3451.4	999999
2965.60	3026.7	999999
2966.10	2683.2	999999
2966.60	2840.2	999999
2967.10	3142.3	999999
2967.60	3188.6	999999
2968.10	1166.8	999999
2968.60	1441.4	999999
2969.10	317.8	999999
2969.50	195.5	999999
2970.00	1147.3	999999
2970.30	445.1	999999
2970.50	1240.6	999999
2971.10	1343.1	999999
2971.60	1108.4	999999
3000.00	252.1	999999
3000.50	171.8	999999
3001.00	458.1	999999
3001.50	238.2	999999
3002.00	245.3	999999
3002.50	318.0	999999
3003.00	365.7	999999
3003.50	1128.2	999999
3004.00	1237.0	999999
3004.50	1320.8	999999
3005.00	1306.7	999999
3005.50	1094.8	999999
3006.00	1240.1	999999
3006.50	1199.6	999999
3007.00	1125.5	999999
3007.50	1254.4	999999
3008.00	1253.1	999999
3008.50	1315.4	999999
3009.10	1155.6	999999
3009.60	1158.1	999999
3010.10	1122.0	999999
3010.60	1110.1	999999
3011.10	895.7	999999
3011.50	1101.8	999999
3012.10	1187.2	999999
3012.60	1645.8	999999
3013.10	1483.8	999999
3013.60	1609.0	999999
3014.10	1543.2	999999
3014.60	1550.1	999999
3015.10	1056.4	999999
3015.60	1467.2	999999
3016.10	1455.2	999999
3016.60	1609.9	999999
3017.00	2142.2	999999
3017.50	1779.3	999999
3018.00	1826.7	999999
3018.50	1200.8	999999
3019.00	1094.1	999999
3019.50	1100.0	999999
3020.00	1013.1	999999
3020.50	992.3	999999
3021.00	1229.5	999999
3021.50	1098.0	999999
3022.10	921.3	999999
3022.60	1260.3	999999
3023.10	916.4	999999
3023.60	1145.4	999999
3024.10	1148.0	999999
3024.60	1046.2	999999
3025.10	1644.7	999999
3025.60	1215.8	999999
3026.10	1312.3	999999
3026.60	1068.1	999999
3027.10	1155.3	999999
3027.60	998.0	999999
3028.10	1250.3	999999
3028.60	1354.8	999999
3029.10	2005.0	999999
3029.60	1912.6	999999
3030.10	2250.1	999999
3030.60	1825.0	999999
3031.40	2093.6	999999
3031.90	1678.2	999999
3032.40	1476.8	999999
3032.90	1134.0	999999
3033.40	1501.8	999999
3033.90	1532.7	999999
3034.40	1502.4	999999
3034.90	1815.5	999999
3035.40	1569.8	999999
3035.90	1606.3	999999
3036.40	1513.6	999999
3036.90	1636.8	999999
3037.40	1443.6	999999
3037.90	1932.0	999999
